# 2023-09-25 1560 SPDC measurment 
# Temperature scan betwen 30 and 50 C 
# This measurement DOES NOT inculde the coincidence stage where we seperate single photons based on polarization per channel 
# A narrowband filter is implemented in C21 (1560.61 nm) bandwidth of 100 GHz# Each single-photon detector is connected to the coincidence stage# TEST MEASUREMENT# --------------------------------- 
# input laser power: 83 mW  at 780 nm (262 mA) 
# pump polarization: 'H' (Ch1, C21R)(uW)  = 82.1 mW)# periodic pooling: 9.12 um# initial setup alignment at 22.0 C# integration time: 60 s 
# single photon detector darkcounts: 2.618 and 2.904 kHz 
# single photon detector QE: 30% 
# single photon detector dead time: 20 us 
# ---------------------------------- 
# Temperature    Clicks_1    Clicks_2    Correlations 
# [C]    [/]    [/]    [/] 
30.0    176238    198669    122
30.1    176918    201707    107
30.2    178702    202743    115
30.3    178577    202135    119
30.4    178356    204664    157
30.5    180589    204819    136
30.6    179463    205399    150
30.7    181181    206329    169
30.8    180514    207677    138
30.9    180383    207109    163
31.0    180699    209191    148
31.1    181436    206591    161
31.2    182016    208340    139
31.3    181559    208532    127
31.4    182028    207810    131
31.5    182783    209739    129
31.6    181698    209377    111
31.7    181017    210903    102
31.8    181947    208917    117
31.9    179584    208522    105
32.0    181437    207616    117
32.1    182112    207787    118
32.2    182194    207709    106
32.3    182114    208925    132
32.4    182006    208359    137
32.5    183605    209185    148
32.6    185041    211113    150
32.7    186255    213617    178
32.8    187234    213872    183
32.9    187837    214987    187
33.0    188652    216160    232
33.1    191007    218251    232
33.2    189671    218279    257
33.3    189552    217644    253
33.4    192851    220195    214
33.5    191899    221082    266
33.6    193862    220420    253
33.7    194147    221992    282
33.8    196113    224370    269
33.9    195960    225532    272
34.0    196888    228297    255
34.1    196427    226756    259
34.2    198105    227877    281
34.3    198156    226990    275
34.4    200720    227462    274
34.5    203393    228676    297
34.6    205038    229792    292
34.7    208806    232823    294
34.8    213144    236804    328
34.9    217211    240847    341
35.0    221224    244571    381
35.1    225324    248426    440
35.2    229805    253922    526
35.3    234422    259645    505
35.4    238270    264327    576
35.5    244183    267112    645
35.6    248707    273264    714
35.7    257220    279649    760
35.8    267287    286665    819
35.9    274203    294643    829
36.0    285580    306325    926
36.1    299970    317849    985
36.2    310290    332000    1031
36.3    322947    343008    1158
36.4    332120    361306    1293
36.5    345021    372860    1472
36.6    354039    386501    1487
36.7    358487    394033    1676
36.8    368926    404906    1797
36.9    377222    415702    1822
37.0    387363    424487    2022
37.1    395319    433523    1902
37.2    405232    445936    1920
37.3    413753    455147    1935
37.4    425475    467492    1937
37.5    435223    480383    1904
37.6    443370    493965    1986
37.7    450758    504137    2017
37.8    456050    514222    2079
37.9    460566    520371    2029
38.0    466235    524962    2047
38.1    480582    527632    2081
38.2    501287    534038    2114
38.3    539464    546087    2074
38.4    589302    570570    2063
38.5    662285    610138    2138
38.6    753461    669626    2546
38.7    858619    754587    3075
38.8    960100    844791    3930
38.9    1050508    938126    4565
39.0    1161216    1057243    5770
39.1    1265654    1179106    6856
39.2    1358756    1292214    7829
39.3    1433540    1389949    8722
39.4    1501005    1480469    9242
39.5    1566941    1573672    10200
39.6    1615879    1643950    10729
39.7    1660763    1712564    11143
39.8    1693052    1768119    11322
39.9    1715057    1810218    11455
40.0    1724666    1843451    11663
40.1    1726512    1864207    11378
40.2    1719951    1875384    11229
40.3    1707040    1878960    11223
40.4    1669023    1870201    10617
40.5    1635710    1853809    10339
40.6    1591357    1828556    9636
40.7    1538256    1795587    9242
40.8    1479166    1753049    8386
40.9    1442836    1727493    8106
41.0    1371840    1671723    7292
41.1    1297690    1607059    6487
41.2    1220817    1538232    5820
41.3    1158849    1476834    5295
41.4    1061245    1370081    4256
41.5    997047    1296539    3887
41.6    938223    1224189    3452
41.7    885106    1155380    3118
41.8    835952    1088674    2792
41.9    786826    1023638    2513
42.0    743052    968916    2342
42.1    704763    917982    2086
42.2    662329    867173    1713
42.3    625260    819041    1475
42.4    586930    768134    1160
42.5    552450    727104    1009
42.6    523367    687135    765
42.7    489039    644929    623
42.8    461581    608118    499
42.9    437731    575763    375
43.0    406496    534556    251
43.1    387589    505530    230
43.2    371297    477127    200
43.3    355418    456485    187
43.4    340184    437273    203
43.5    327253    420820    179
43.6    314787    404238    185
43.7    303036    386141    181
43.8    293802    373035    174
43.9    285719    359813    180
44.0    278755    345643    212
44.1    269910    335394    189
44.2    263479    327809    190
44.3    256591    319057    215
44.4    253300    311698    204
44.5    249678    305965    223
44.6    245369    300189    250
44.7    241433    293262    250
44.8    239013    286936    260
44.9    235207    282581    313
45.0    232513    280966    305
45.1    230273    276884    348
45.2    228110    272725    327
45.3    226980    268867    366
45.4    224251    269238    360
45.5    221642    267824    380
45.6    219498    262907    365
45.7    216874    259637    306
45.8    214159    259652    319
45.9    211458    254634    311
46.0    209175    252401    258
46.1    207288    248893    248
46.2    202425    244075    213
46.3    201330    241706    187
46.4    199921    239096    219
46.5    198609    234623    176
46.6    196939    233118    165
46.7    193802    229430    188
46.8    190805    226003    138
46.9    191406    224881    148
47.0    191062    222916    124
47.1    187551    221301    101
47.2    186684    219408    94
47.3    184816    216841    107
47.4    185100    215827    92
47.5    183505    214990    84
47.6    182251    212222    80
47.7    180341    210413    74
47.8    181523    210995    103
47.9    179608    209249    93
48.0    179452    208688    83
48.1    178620    206727    72
48.2    177358    206288    82
48.3    177348    206204    76
48.4    177334    204856    75
48.5    175287    204768    74
48.6    174808    204425    83
48.7    175762    202351    94
48.8    174150    200502    71
48.9    173788    199731    52
49.0    173791    200417    55
49.1    173045    200446    69
49.2    173932    199434    72
49.3    173170    198998    77
49.4    173903    200255    77
49.5    173907    199916    71
49.6    174216    199634    78
49.7    173412    199464    76
49.8    173572    199630    88
49.9    173530    200122    86
50.0    173436    199453    90
